* Measurement data measured by REW V5.20.3
* Format: Comma/Tab/Space delimited data
* Dated: 21-Oct-2021 09:02:00
* REW Settings:
*  C-weighting compensation: Off
*  Target level: 75.0 dB
* Note: 
* Measurement: VSG Target
* Smoothing: 1/24 octave
* Frequency Step: 1/48 octave
* Start Frequency: 20.000 Hz
*
* Freq(Hz)	SPL(dB)	Phase(degrees)
20.000000	64.105	0.0000
20.299999	64.105	0.0000
20.600000	64.106	0.0000
20.900000	64.107	0.0000
21.200001	64.108	0.0000
21.400000	64.109	0.0000
21.799999	64.111	0.0000
22.000000	64.112	0.0000
22.400000	64.114	0.0000
22.700001	64.116	0.0000
23.000000	64.117	0.0000
23.299999	64.119	0.0000
23.600000	64.121	0.0000
24.000000	64.123	0.0000
24.299999	64.124	0.0000
24.700001	64.126	0.0000
25.000000	64.128	0.0000
25.400000	64.130	0.0000
25.799999	64.132	0.0000
26.200001	64.134	0.0000
26.500000	64.136	0.0000
26.900000	64.138	0.0000
27.200001	64.139	0.0000
27.600000	64.141	0.0000
28.000000	64.143	0.0000
28.500000	64.145	0.0000
29.000000	64.147	0.0000
29.500000	64.149	0.0000
30.000000	64.151	0.0000
30.400000	64.152	0.0000
30.700001	64.153	0.0000
31.100000	64.155	0.0000
31.500000	64.156	0.0000
32.000000	64.157	0.0000
32.500000	64.159	0.0000
33.000000	64.160	0.0000
33.500000	64.162	0.0000
34.000000	64.163	0.0000
34.500000	64.163	0.0000
35.000000	64.164	0.0000
35.500000	64.165	0.0000
36.000000	64.165	0.0000
36.500000	64.165	0.0000
37.000000	64.165	0.0000
37.500000	64.165	0.0000
38.200001	64.165	0.0000
38.700001	64.164	0.0000
39.500000	64.163	0.0000
40.000000	64.162	0.0000
40.599998	64.161	0.0000
41.200001	64.159	0.0000
41.799999	64.157	0.0000
42.500000	64.154	0.0000
43.099998	64.151	0.0000
43.700001	64.148	0.0000
44.400002	64.144	0.0000
45.000000	64.140	0.0000
45.500000	64.136	0.0000
46.200001	64.130	0.0000
46.799999	64.125	0.0000
47.500000	64.118	0.0000
48.200001	64.110	0.0000
48.700001	64.104	0.0000
49.400002	64.095	0.0000
50.000000	64.087	0.0000
50.799999	64.075	0.0000
51.500000	64.063	0.0000
52.200001	64.051	0.0000
53.000000	64.037	0.0000
53.799999	64.023	0.0000
54.500000	64.010	0.0000
55.200001	63.996	0.0000
56.000000	63.980	0.0000
57.000000	63.961	0.0000
58.000000	63.941	0.0000
59.000000	63.921	0.0000
60.000000	63.902	0.0000
60.799999	63.886	0.0000
61.500000	63.872	0.0000
62.200001	63.858	0.0000
63.000000	63.842	0.0000
64.000000	63.822	0.0000
65.000000	63.802	0.0000
66.000000	63.782	0.0000
67.000000	63.762	0.0000
68.000000	63.742	0.0000
69.000000	63.722	0.0000
70.000000	63.702	0.0000
71.000000	63.682	0.0000
72.000000	63.662	0.0000
73.000000	63.642	0.0000
74.000000	63.621	0.0000
75.000000	63.601	0.0000
76.199997	63.577	0.0000
77.500000	63.551	0.0000
78.800003	63.525	0.0000
80.000000	63.500	0.0000
81.199997	63.476	0.0000
82.500000	63.450	0.0000
83.800003	63.424	0.0000
85.000000	63.399	0.0000
86.199997	63.375	0.0000
87.500000	63.349	0.0000
88.500000	63.328	0.0000
90.000000	63.297	0.0000
91.199997	63.273	0.0000
92.500000	63.246	0.0000
93.800003	63.219	0.0000
95.000000	63.195	0.0000
96.199997	63.170	0.0000
97.500000	63.144	0.0000
98.800003	63.117	0.0000
100.000000	63.093	0.0000
101.500000	63.062	0.0000
103.000000	63.032	0.0000
104.400002	63.003	0.0000
106.000000	62.970	0.0000
107.500000	62.939	0.0000
109.000000	62.908	0.0000
110.599998	62.875	0.0000
112.000000	62.847	0.0000
113.800003	62.809	0.0000
115.000000	62.785	0.0000
117.199997	62.739	0.0000
118.000000	62.723	0.0000
120.599998	62.670	0.0000
122.000000	62.641	0.0000
124.099998	62.597	0.0000
125.000000	62.579	0.0000
126.500000	62.548	0.0000
128.000000	62.517	0.0000
131.500000	62.445	0.0000
132.000000	62.435	0.0000
134.000000	62.393	0.0000
136.000000	62.352	0.0000
138.000000	62.311	0.0000
140.000000	62.270	0.0000
143.000000	62.208	0.0000
145.000000	62.167	0.0000
147.500000	62.116	0.0000
150.000000	62.065	0.0000
152.500000	62.014	0.0000
155.000000	61.962	0.0000
157.500000	61.911	0.0000
160.000000	61.860	0.0000
162.500000	61.809	0.0000
165.000000	61.758	0.0000
167.500000	61.707	0.0000
170.000000	61.656	0.0000
172.500000	61.605	0.0000
175.000000	61.555	0.0000
177.500000	61.504	0.0000
180.000000	61.454	0.0000
182.500000	61.403	0.0000
185.000000	61.353	0.0000
187.500000	61.303	0.0000
190.000000	61.253	0.0000
192.500000	61.204	0.0000
195.000000	61.154	0.0000
197.500000	61.105	0.0000
200.000000	61.055	0.0000
203.000000	60.996	0.0000
206.000000	60.937	0.0000
209.000000	60.879	0.0000
212.000000	60.820	0.0000
214.000000	60.782	0.0000
218.000000	60.705	0.0000
220.000000	60.667	0.0000
224.000000	60.592	0.0000
227.000000	60.537	0.0000
230.000000	60.483	0.0000
233.000000	60.430	0.0000
236.000000	60.380	0.0000
240.000000	60.316	0.0000
243.000000	60.271	0.0000
247.000000	60.217	0.0000
250.000000	60.181	0.0000
254.000000	60.140	0.0000
258.000000	60.106	0.0000
262.000000	60.081	0.0000
265.000000	60.066	0.0000
269.000000	60.053	0.0000
272.000000	60.047	0.0000
276.000000	60.043	0.0000
280.000000	60.043	0.0000
285.000000	60.048	0.0000
290.000000	60.055	0.0000
295.000000	60.064	0.0000
300.000000	60.072	0.0000
304.000000	60.078	0.0000
307.000000	60.082	0.0000
311.000000	60.087	0.0000
315.000000	60.090	0.0000
320.000000	60.094	0.0000
325.000000	60.096	0.0000
330.000000	60.097	0.0000
335.000000	60.098	0.0000
340.000000	60.099	0.0000
345.000000	60.099	0.0000
350.000000	60.100	0.0000
355.000000	60.100	0.0000
360.000000	60.100	0.0000
365.000000	60.100	0.0000
370.000000	60.100	0.0000
375.000000	60.100	0.0000
382.000000	60.100	0.0000
387.000000	60.100	0.0000
395.000000	60.100	0.0000
400.000000	60.100	0.0000
406.000000	60.100	0.0000
412.000000	60.100	0.0000
418.000000	60.100	0.0000
425.000000	60.100	0.0000
431.000000	60.100	0.0000
437.000000	60.100	0.0000
444.000000	60.099	0.0000
450.000000	60.099	0.0000
455.000000	60.099	0.0000
462.000000	60.098	0.0000
468.000000	60.097	0.0000
475.000000	60.095	0.0000
482.000000	60.093	0.0000
487.000000	60.091	0.0000
494.000000	60.087	0.0000
500.000000	60.083	0.0000
508.000000	60.077	0.0000
515.000000	60.071	0.0000
522.000000	60.064	0.0000
530.000000	60.056	0.0000
538.000000	60.047	0.0000
545.000000	60.039	0.0000
552.000000	60.030	0.0000
560.000000	60.020	0.0000
570.000000	60.008	0.0000
580.000000	59.996	0.0000
590.000000	59.984	0.0000
600.000000	59.973	0.0000
608.000000	59.964	0.0000
615.000000	59.957	0.0000
622.000000	59.949	0.0000
630.000000	59.941	0.0000
640.000000	59.931	0.0000
650.000000	59.921	0.0000
660.000000	59.912	0.0000
670.000000	59.904	0.0000
680.000000	59.896	0.0000
690.000000	59.889	0.0000
700.000000	59.882	0.0000
710.000000	59.875	0.0000
720.000000	59.870	0.0000
730.000000	59.866	0.0000
740.000000	59.862	0.0000
750.000000	59.859	0.0000
762.000000	59.856	0.0000
775.000000	59.855	0.0000
788.000000	59.855	0.0000
800.000000	59.857	0.0000
812.000000	59.860	0.0000
825.000000	59.865	0.0000
838.000000	59.872	0.0000
850.000000	59.880	0.0000
862.000000	59.890	0.0000
875.000000	59.904	0.0000
885.000000	59.916	0.0000
900.000000	59.936	0.0000
912.000000	59.956	0.0000
925.000000	59.982	0.0000
938.000000	60.011	0.0000
950.000000	60.043	0.0000
962.000000	60.079	0.0000
975.000000	60.123	0.0000
988.000000	60.173	0.0000
1000.000000	60.225	0.0000
1015.000000	60.298	0.0000
1030.000000	60.378	0.0000
1044.000000	60.459	0.0000
1060.000000	60.559	0.0000
1075.000000	60.657	0.0000
1090.000000	60.761	0.0000
1106.000000	60.876	0.0000
1120.000000	60.979	0.0000
1138.000000	61.115	0.0000
1150.000000	61.208	0.0000
1172.000000	61.382	0.0000
1180.000000	61.447	0.0000
1206.000000	61.659	0.0000
1220.000000	61.776	0.0000
1241.000000	61.952	0.0000
1250.000000	62.029	0.0000
1265.000000	62.156	0.0000
1280.000000	62.285	0.0000
1315.000000	62.586	0.0000
1320.000000	62.630	0.0000
1340.000000	62.802	0.0000
1360.000000	62.973	0.0000
1380.000000	63.143	0.0000
1400.000000	63.311	0.0000
1430.000000	63.558	0.0000
1450.000000	63.719	0.0000
1475.000000	63.913	0.0000
1500.000000	64.100	0.0000
1525.000000	64.280	0.0000
1550.000000	64.452	0.0000
1575.000000	64.618	0.0000
1600.000000	64.777	0.0000
1625.000000	64.930	0.0000
1650.000000	65.077	0.0000
1675.000000	65.218	0.0000
1700.000000	65.354	0.0000
1725.000000	65.485	0.0000
1750.000000	65.610	0.0000
1775.000000	65.731	0.0000
1800.000000	65.845	0.0000
1825.000000	65.954	0.0000
1850.000000	66.058	0.0000
1875.000000	66.157	0.0000
1900.000000	66.251	0.0000
1925.000000	66.339	0.0000
1950.000000	66.423	0.0000
1975.000000	66.503	0.0000
2000.000000	66.579	0.0000
2030.000000	66.665	0.0000
2060.000000	66.747	0.0000
2090.000000	66.824	0.0000
2120.000000	66.897	0.0000
2140.000000	66.944	0.0000
2180.000000	67.033	0.0000
2200.000000	67.075	0.0000
2240.000000	67.156	0.0000
2270.000000	67.212	0.0000
2300.000000	67.266	0.0000
2330.000000	67.316	0.0000
2360.000000	67.363	0.0000
2400.000000	67.421	0.0000
2430.000000	67.461	0.0000
2470.000000	67.508	0.0000
2500.000000	67.540	0.0000
2540.000000	67.576	0.0000
2580.000000	67.607	0.0000
2620.000000	67.630	0.0000
2650.000000	67.643	0.0000
2690.000000	67.654	0.0000
2720.000000	67.658	0.0000
2760.000000	67.656	0.0000
2800.000000	67.647	0.0000
2850.000000	67.622	0.0000
2900.000000	67.585	0.0000
2950.000000	67.534	0.0000
3000.000000	67.470	0.0000
3040.000000	67.410	0.0000
3070.000000	67.359	0.0000
3110.000000	67.286	0.0000
3150.000000	67.206	0.0000
3200.000000	67.100	0.0000
3250.000000	66.987	0.0000
3300.000000	66.868	0.0000
3350.000000	66.745	0.0000
3400.000000	66.619	0.0000
3450.000000	66.490	0.0000
3500.000000	66.359	0.0000
3550.000000	66.226	0.0000
3600.000000	66.091	0.0000
3650.000000	65.954	0.0000
3700.000000	65.816	0.0000
3750.000000	65.676	0.0000
3820.000000	65.479	0.0000
3870.000000	65.338	0.0000
3950.000000	65.110	0.0000
4000.000000	64.967	0.0000
4060.000000	64.794	0.0000
4120.000000	64.622	0.0000
4180.000000	64.449	0.0000
4250.000000	64.248	0.0000
4310.000000	64.076	0.0000
4370.000000	63.905	0.0000
4440.000000	63.707	0.0000
4500.000000	63.540	0.0000
4550.000000	63.403	0.0000
4620.000000	63.215	0.0000
4680.000000	63.059	0.0000
4750.000000	62.885	0.0000
4820.000000	62.720	0.0000
4870.000000	62.610	0.0000
4940.000000	62.468	0.0000
5000.000000	62.359	0.0000
5080.000000	62.233	0.0000
5150.000000	62.142	0.0000
5220.000000	62.070	0.0000
5300.000000	62.010	0.0000
5380.000000	61.972	0.0000
5450.000000	61.957	0.0000
5520.000000	61.957	0.0000
5600.000000	61.975	0.0000
5700.000000	62.023	0.0000
5800.000000	62.097	0.0000
5900.000000	62.193	0.0000
6000.000000	62.309	0.0000
6080.000000	62.413	0.0000
6150.000000	62.509	0.0000
6220.000000	62.608	0.0000
6300.000000	62.722	0.0000
6400.000000	62.860	0.0000
6500.000000	62.990	0.0000
6600.000000	63.105	0.0000
6700.000000	63.203	0.0000
6800.000000	63.282	0.0000
6900.000000	63.342	0.0000
7000.000000	63.382	0.0000
7100.000000	63.404	0.0000
7200.000000	63.410	0.0000
7300.000000	63.400	0.0000
7400.000000	63.378	0.0000
7500.000000	63.345	0.0000
7620.000000	63.294	0.0000
7750.000000	63.227	0.0000
7880.000000	63.151	0.0000
8000.000000	63.073	0.0000
8120.000000	62.992	0.0000
8250.000000	62.899	0.0000
8380.000000	62.804	0.0000
8500.000000	62.715	0.0000
8620.000000	62.624	0.0000
8750.000000	62.525	0.0000
8850.000000	62.448	0.0000
9000.000000	62.333	0.0000
9120.000000	62.241	0.0000
9250.000000	62.141	0.0000
9380.000000	62.040	0.0000
9500.000000	61.948	0.0000
9620.000000	61.856	0.0000
9750.000000	61.757	0.0000
9880.000000	61.658	0.0000
10000.000000	61.567	0.0000
10150.000000	61.453	0.0000
10300.000000	61.341	0.0000
10440.000000	61.236	0.0000
10600.000000	61.118	0.0000
10750.000000	61.008	0.0000
10900.000000	60.899	0.0000
11060.000000	60.784	0.0000
11200.000000	60.686	0.0000
11380.000000	60.561	0.0000
11500.000000	60.479	0.0000
11720.000000	60.333	0.0000
11800.000000	60.281	0.0000
12060.000000	60.117	0.0000
12200.000000	60.031	0.0000
12410.000000	59.906	0.0000
12500.000000	59.853	0.0000
12650.000000	59.767	0.0000
12800.000000	59.682	0.0000
13150.000000	59.490	0.0000
13200.000000	59.463	0.0000
13400.000000	59.357	0.0000
13600.000000	59.251	0.0000
13800.000000	59.147	0.0000
14000.000000	59.044	0.0000
14300.000000	58.891	0.0000
14500.000000	58.791	0.0000
14750.000000	58.666	0.0000
15000.000000	58.543	0.0000
15250.000000	58.420	0.0000
15500.000000	58.299	0.0000
15750.000000	58.178	0.0000
16000.000000	58.058	0.0000
16250.000000	57.938	0.0000
16500.000000	57.820	0.0000
16750.000000	57.701	0.0000
17000.000000	57.583	0.0000
17250.000000	57.465	0.0000
17500.000000	57.348	0.0000
17750.000000	57.232	0.0000
18000.000000	57.117	0.0000
18250.000000	57.005	0.0000
18500.000000	56.897	0.0000
18750.000000	56.796	0.0000
19000.000000	56.703	0.0000
19250.000000	56.621	0.0000
19500.000000	56.554	0.0000
19750.000000	56.506	0.0000
